# Observation conducted on 2020.02.22 at Bd rev. 2 
# Base frequency: 0.00 MHz dF: 0.2 Hz dT: 0.00025 s 
# Format: Modified JD   |       Time(UTC) [s]    | Signal-to-Noise ratio  |      Spectral max      |  Freq. detection [Hz]  |  Doppler noise [Hz] 
# 
5.790100000000000000e+04 6.606000000000000000e+03 5.589948386460628171e+01 3.209050519759526310e+01 4.028902337155319750e+06 -1.536222542756604525e-02
5.790100000000000000e+04 6.616000000000000000e+03 8.067045263309550762e+01 4.669439177740633085e+01 4.028894838049698621e+06 2.088033956079016207e-02
5.790100000000000000e+04 6.626000000000000000e+03 7.254795045236114959e+01 4.409246860616785568e+01 4.028887265615341254e+06 -1.561266927012638916e-02
5.790100000000000000e+04 6.636000000000000000e+03 5.648946704943826802e+01 3.659086724831203696e+01 4.028879740771822166e+06 -7.648692088537245581e-03
5.790100000000000000e+04 6.646000000000000000e+03 7.204640846101736429e+01 4.153025063721912602e+01 4.028872217043494806e+06 -4.631775716916308738e-03
5.790100000000000000e+04 6.656000000000000000e+03 6.867250731263729335e+01 4.497178830652393344e+01 4.028864715600422584e+06 1.239566347089748888e-02
5.790100000000000000e+04 6.666000000000000000e+03 8.123014650680636350e+01 5.073273840147285085e+01 4.028857181771225762e+06 -1.281699477362963080e-02
5.790100000000000000e+04 6.676000000000000000e+03 7.180853112775565705e+01 4.863727798617902920e+01 4.028849705687275156e+06 8.832930752419088094e-03
5.790100000000000000e+04 6.686000000000000000e+03 8.192477051982778846e+01 4.905418291550386556e+01 4.028842222016258165e+06 1.145230076440384437e-02
5.790100000000000000e+04 6.696000000000000000e+03 7.308047568049767051e+01 4.541239160017036625e+01 4.028834756759436801e+06 2.086672891130092466e-02
5.790100000000000000e+04 6.706000000000000000e+03 1.056606342915615642e+02 5.618395999896906545e+01 4.028827255879808217e+06 -1.683394723431774764e-02
5.790100000000000000e+04 6.716000000000000000e+03 8.877000636293145419e+01 5.187550666247803122e+01 4.028819811970820185e+06 -8.709633120929538563e-03
5.790100000000000000e+04 6.726000000000000000e+03 6.459015298320940701e+01 4.066296203672981591e+01 4.028812387525631581e+06 8.216591565883391013e-03
5.790100000000000000e+04 6.736000000000000000e+03 8.478001169250964608e+01 5.288206217941647935e+01 4.028804953103114385e+06 5.041792492988861341e-03
5.790100000000000000e+04 6.746000000000000000e+03 9.536220209075209198e+01 5.861737053977633138e+01 4.028797535568120424e+06 9.140757050886350044e-03
5.790100000000000000e+04 6.756000000000000000e+03 8.439965787687729915e+01 5.062157261271565289e+01 4.028790109755567741e+06 -4.252602731071419839e-03
5.790100000000000000e+04 6.766000000000000000e+03 7.964979626407647118e+01 4.732584257491463831e+01 4.028782704781462438e+06 -5.816917852257574850e-03
5.790100000000000000e+04 6.776000000000000000e+03 7.158248351892916617e+01 4.936020429080006267e+01 4.028775310805127490e+06 -5.463818230396100262e-03
5.790100000000000000e+04 6.786000000000000000e+03 7.883026852305083310e+01 4.233475424879016202e+01 4.028767935514159966e+06 4.064337464569689473e-03
5.790100000000000000e+04 6.796000000000000000e+03 8.690637526801781121e+01 4.810928713845243720e+01 4.028760559048397467e+06 2.035740254200391064e-03
5.790100000000000000e+04 6.806000000000000000e+03 7.539451134333336313e+01 4.331313609479133220e+01 4.028753198399601970e+06 4.046129151447530603e-03
5.790100000000000000e+04 6.816000000000000000e+03 8.493618982656145988e+01 5.558550163672447297e+01 4.028745838598157279e+06 -6.877198773736381554e-03
5.790100000000000000e+04 6.826000000000000000e+03 7.412837565684634455e+01 4.459536544668384295e+01 4.028738516549762338e+06 3.478618905205621559e-03
