# Observation conducted on 2020.02.22 at Hh rev. 2 
# Base frequency: 0.00 MHz dF: 0.2 Hz dT: 0.00025 s 
# Format: Modified JD   |       Time(UTC) [s]    | Signal-to-Noise ratio  |      Spectral max      |  Freq. detection [Hz]  |  Doppler noise [Hz] 
# 
5.890100000000000000e+04 6.605000000000000000e+03 6.692976142548771179e+01 4.038604241065361578e+01 4.039720533049932681e+06 2.030942445230721205e-03
5.890100000000000000e+04 6.615000000000000000e+03 6.496507813307421486e+01 3.735591531751862249e+01 4.039715334356392268e+06 -1.200199878894636640e-04
5.890100000000000000e+04 6.625000000000000000e+03 4.603125187803048846e+01 3.006566599016750985e+01 4.039710120244630147e+06 -2.092730830906930350e-02
5.890100000000000000e+04 6.635000000000000000e+03 4.807164491290450314e+01 3.112526887485955029e+01 4.039704950879211538e+06 -1.911075219140911940e-04
5.890100000000000000e+04 6.645000000000000000e+03 6.379391955873745701e+01 3.787054143144175100e+01 4.039699777560750954e+06 1.334384553240397508e-02
5.890100000000000000e+04 6.655000000000000000e+03 8.944092681810568024e+01 5.255330631200811808e+01 4.039694585234187078e+06 4.510608698296891816e-03
5.890100000000000000e+04 6.665000000000000000e+03 7.410302668014956851e+01 4.735718711376397039e+01 4.039689396296458319e+06 -4.458224741711092065e-03
5.890100000000000000e+04 6.675000000000000000e+03 4.042120054136619700e+01 2.508118589537927079e+01 4.039684221009960398e+06 -3.502996700035510003e-03
5.890100000000000000e+04 6.685000000000000000e+03 7.575103361492352860e+01 3.961312291959121268e+01 4.039679042660364881e+06 -9.565097331801553082e-03
5.890100000000000000e+04 6.695000000000000000e+03 6.686767968087349345e+01 3.919136265427146526e+01 4.039673884843579493e+06 7.140614203535733395e-04
5.890100000000000000e+04 6.705000000000000000e+03 8.847149232217191184e+01 4.613427110980524759e+01 4.039668718930030242e+06 -1.528598782329027017e-03
5.890100000000000000e+04 6.715000000000000000e+03 5.544460899527172870e+01 3.509346100971418281e+01 4.039663569500435144e+06 8.072016859728137206e-03
5.890100000000000000e+04 6.725000000000000000e+03 7.475587010736104787e+01 4.108289142723934617e+01 4.039658401650837623e+06 -5.571720826424098050e-03
5.890100000000000000e+04 6.735000000000000000e+03 7.529596243726899729e+01 3.935765499879048690e+01 4.039653273573883809e+06 1.559518102681067830e-02
5.890100000000000000e+04 6.745000000000000000e+03 4.913822421584286104e+01 2.947612759457654263e+01 4.039648107135499828e+06 -6.638916697397689859e-03
5.890100000000000000e+04 6.755000000000000000e+03 6.805712895425094189e+01 4.412714634522819779e+01 4.039642978940295521e+06 4.327188911702251062e-03
5.890100000000000000e+04 6.765000000000000000e+03 5.075699988935554785e+01 3.489002305649146507e+01 4.039637833792947233e+06 -6.617006257670254854e-03
5.890100000000000000e+04 6.775000000000000000e+03 6.015283975068154376e+01 3.586161281702382553e+01 4.039632702550058719e+06 -8.427786286574701080e-03
5.890100000000000000e+04 6.785000000000000000e+03 6.404076305633401489e+01 3.632501674874965403e+01 4.039627578497383278e+06 -7.515919868524179037e-03
5.890100000000000000e+04 6.795000000000000000e+03 8.100148318799988090e+01 4.755464099623183927e+01 4.039622462563242298e+06 -2.519175089219061192e-03
5.890100000000000000e+04 6.805000000000000000e+03 5.428439184574888543e+01 3.257349586346048653e+01 4.039617361363572069e+06 1.375679433226650872e-02
5.890100000000000000e+04 6.815000000000000000e+03 6.744228628155821070e+01 3.935921472574901969e+01 4.039612241536202375e+06 8.686801269959687488e-03
5.890100000000000000e+04 6.825000000000000000e+03 7.825665888619602129e+01 4.662792083439129698e+01 4.039607114831259008e+06 -5.069408192866831087e-03
5.890100000000000000e+04 6.835000000000000000e+03 4.674928479720934149e+01 2.735284001953470678e+01 4.039602007417178247e+06 -2.470686562219270854e-04
