# Observation conducted on 2020.02.22 at T6 rev. 2 
# Base frequency: 0.00 MHz dF: 0.2 Hz dT: 0.00025 s 
# Format: Modified JD   |       Time(UTC) [s]    | Signal-to-Noise ratio  |      Spectral max      |  Freq. detection [Hz]  |  Doppler noise [Hz] 
# 
5.890100000000000000e+04 5.405000000000000000e+03 2.748974648562126504e+02 4.780091706306378114e+02 4.026444138071184512e+06 8.062045172664511483e-03
5.890100000000000000e+04 5.415000000000000000e+03 3.792614331141722346e+02 6.013670584453809624e+02 4.026434565912636463e+06 -5.503727760128640512e-03
5.890100000000000000e+04 5.425000000000000000e+03 3.480386659959637541e+02 6.701117181253132458e+02 4.026425023982270155e+06 -7.340670661051262869e-04
5.890100000000000000e+04 5.435000000000000000e+03 3.710890116813521331e+02 7.725493709116883565e+02 4.026415487973484676e+06 -1.747780357277406438e-03
5.890100000000000000e+04 5.445000000000000000e+03 3.618429065140812781e+02 7.359085156613260779e+02 4.026405965940879192e+06 -3.256758004681614693e-04
5.890100000000000000e+04 5.455000000000000000e+03 5.002188247683255895e+02 7.871522221215370791e+02 4.026396457120109349e+06 2.910482615561704733e-03
5.890100000000000000e+04 5.465000000000000000e+03 3.797317134910187519e+02 7.487500951456056555e+02 4.026386953920552973e+06 4.918358229133446002e-04
5.890100000000000000e+04 5.475000000000000000e+03 4.705176498299989021e+02 7.602763903173299695e+02 4.026377464617400896e+06 7.957091622756706784e-04
5.890100000000000000e+04 5.485000000000000000e+03 4.536198596336802780e+02 7.668564142969590876e+02 4.026367984079256654e+06 -1.225594225729764730e-03
5.890100000000000000e+04 5.495000000000000000e+03 3.881748702965888356e+02 7.718220521798436948e+02 4.026358516405559145e+06 -1.406180613912511035e-03
5.890100000000000000e+04 5.505000000000000000e+03 3.773365077290709451e+02 7.387861652633198446e+02 4.026349061647024006e+06 3.550667537410845398e-04
5.890100000000000000e+04 5.515000000000000000e+03 3.782078740137485511e+02 7.720711814983869772e+02 4.026339615439516492e+06 -2.704466650129688787e-04
5.890100000000000000e+04 5.525000000000000000e+03 4.804381643503531336e+02 7.442542511204662787e+02 4.026330182705443818e+06 1.661555985606355534e-03
5.890100000000000000e+04 5.535000000000000000e+03 4.277294811858452022e+02 7.720891695906814221e+02 4.026320756658737548e+06 -6.256021918034093687e-04
5.890100000000000000e+04 5.545000000000000000e+03 4.368821157024826789e+02 7.911588815889232364e+02 4.026311343205260579e+06 -1.227954837759170914e-03
5.890100000000000000e+04 5.555000000000000000e+03 3.943346982507373468e+02 7.508932727645843670e+02 4.026301942687538452e+06 1.850324912311407388e-04
5.890100000000000000e+04 5.565000000000000000e+03 3.775262629352002364e+02 7.865499090614675879e+02 4.026292550809580833e+06 -7.035276205442642095e-04
5.890100000000000000e+04 5.575000000000000000e+03 4.241342553970845870e+02 7.812644551458830620e+02 4.026283169805189595e+06 -1.688441634655646340e-03
5.890100000000000000e+04 5.585000000000000000e+03 3.818587259758983805e+02 8.027783640317317122e+02 4.026273803592905868e+06 1.113699820621150138e-03
5.890100000000000000e+04 5.595000000000000000e+03 4.056625049791923061e+02 7.791430324618897885e+02 4.026264443020076491e+06 -1.490214981458848342e-03
5.890100000000000000e+04 5.605000000000000000e+03 3.606905155634653966e+02 7.761285826607246463e+02 4.026255098443733528e+06 8.122453459691314492e-04
5.890100000000000000e+04 5.615000000000000000e+03 3.750875546158405314e+02 8.097677416447229461e+02 4.026245764650170691e+06 2.759828809644204739e-03
5.890100000000000000e+04 5.625000000000000000e+03 4.191222930962372857e+02 8.335940169958074648e+02 4.026236438356058206e+06 1.019904450231479132e-03
5.890100000000000000e+04 5.635000000000000000e+03 3.846314909529367583e+02 7.990424639547753713e+02 4.026227124866130762e+06 8.473405684981116792e-04
5.890100000000000000e+04 5.645000000000000000e+03 3.871242223906872937e+02 8.533481293285233278e+02 4.026217820121065713e+06 -1.866423685100926377e-03
5.890100000000000000e+04 5.655000000000000000e+03 3.127522863436781790e+02 8.304944697479027127e+02 4.026208532322982326e+06 1.033310662137409963e-03
5.890100000000000000e+04 5.665000000000000000e+03 4.273405861734498217e+02 7.558902105499734034e+02 4.026199253505648114e+06 1.535902048885873228e-03
5.890100000000000000e+04 5.675000000000000000e+03 4.660006841494972605e+02 8.314408848290642027e+02 4.026189981983972248e+06 -2.083948419908665528e-03
5.890100000000000000e+04 5.685000000000000000e+03 3.789268288601152221e+02 8.023012046127030317e+02 4.026180725513016805e+06 -2.105994415956047305e-03
5.890100000000000000e+04 5.695000000000000000e+03 3.499607018191653651e+02 7.512260159120288563e+02 4.026171482496774755e+06 -1.544719879120748374e-04
5.890100000000000000e+04 5.705000000000000000e+03 3.946030743320670240e+02 7.164057034193112941e+02 4.026162252379964106e+06 3.194881551507933182e-03
5.890100000000000000e+04 5.715000000000000000e+03 4.206429484671180603e+02 6.649032289751294229e+02 4.026153026274462696e+06 -9.575423905516800005e-04
